#   1 FLUX_AUTO              Flux within a Kron-like elliptical aperture                [count]
#   2 KRON_RADIUS            Kron apertures in units of A or B                         
#   3 X_IMAGE                Object position along x                                    [pixel]
#   4 Y_IMAGE                Object position along y                                    [pixel]
#   5 A_IMAGE                Profile RMS along major axis                               [pixel]
#   6 B_IMAGE                Profile RMS along minor axis                               [pixel]
#   7 THETA_IMAGE            Position angle (CCW/x)                                     [deg]
#   8 ALPHA_SKY              Right ascension of barycenter (native)                     [deg]
#   9 DELTA_SKY              Declination of barycenter (native)                         [deg]
     1526152  3.20    464.179    391.585    17.331    14.596 -14.7 349.1676833  +9.8174721
     1917774  2.15    234.085     19.727     4.414     4.034 -34.6 349.1142873  +9.7811656
    114563.1  4.59    469.107      9.290    22.456     8.559  -1.1 349.1110015  +9.8154087
    10116.36  7.38    497.087     20.218     2.335     1.962  33.2 349.1124137  +9.8195742
    4866.978  4.00    550.514     18.174     1.696     1.534  45.2 349.1117152  +9.8273610
    23114.99  2.98    358.619     10.970     1.732     1.673  53.9 349.1120683  +9.7992868
    2650.801  1.78    789.651      7.132     1.654     1.428  27.7 349.1083086  +9.8622006
    480.4149  1.51    332.425      1.627     1.335     0.668  -4.1 349.1108779  +9.7953938
    677.6533  6.94     21.808      1.383     1.248     0.475  -5.2 349.1131406  +9.7500339
    3069.722  2.70     11.247    782.010     1.382     1.364  23.3 349.2288634  +9.7541637
    4972.503  4.97    650.813    798.520     2.432     1.247   1.1 349.2266085  +9.8476779
    9008.979  4.43    525.376    798.731     2.851     1.381   9.2 349.2275619  +9.8293621
    125265.4  2.93    506.027    798.385     1.893     1.480  -4.1 349.2276528  +9.8265342
    1338.545  4.05    457.826    797.967     1.475     1.221 -22.5 349.2279454  +9.8194923
    356.5601  5.48    206.842    798.837     0.758     0.571  41.4 349.2299190  +9.7828480
    788.2679  5.07    123.817    798.894     1.175     0.911  16.3 349.2305376  +9.7707243
    2486.206  3.04    431.495    781.022     1.607     1.378  30.7 349.2256281  +9.8155247
    3669.339  4.56    337.380    779.342     2.002     1.819 -21.9 349.2260710  +9.8017689
    919.4979  6.87    197.328    778.996     1.106     0.831  50.6 349.2270493  +9.7813150
    646.5165  6.79    570.494    776.793     1.358     0.531  27.0 349.2239795  +9.8357917
    7498.708  5.69    627.379    771.484     3.140     2.538 -66.5 349.2227744  +9.8440601
    284.6737  6.68    721.445    775.525     0.502     0.494  54.0 349.2226815  +9.8578257
    4926.478  4.03    691.257    773.000     1.762     1.471  27.6 349.2225293  +9.8533991
    10969.11  3.74    253.724    768.601     2.255     2.026 -45.8 349.2250946  +9.7894751
    604.6374  6.65    756.143    772.153     0.829     0.682 -42.8 349.2219265  +9.8628682
     6031.14  3.05    777.808    766.786     1.661     1.554  33.9 349.2209719  +9.8659929
    75080.81  3.00    716.307    759.281     2.026     1.761  58.2 349.2203120  +9.8569577
    2181.346  6.33    702.516    760.767     2.372     1.419 -59.7 349.2206337  +9.8549546
    3394.733  4.68    517.990    761.143     2.765     1.496  10.4 349.2220465  +9.8280113
    2901.538  4.60     28.616    761.466     1.745     1.450   5.4 349.2256923  +9.7565513
    3877.092  3.46     40.168    754.949     1.442     1.378  42.9 349.2246418  +9.7581909
    11735.69  3.18    321.934    749.047     1.663     1.599  38.3 349.2216959  +9.7992939
    54877.46  2.97    546.703    744.449     1.802     1.748  30.4 349.2193616  +9.8320833
    3798.552  5.29     25.747    744.454     2.021     1.504  10.7 349.2231931  +9.7560091
    1237.005  5.05    685.170    742.557     1.479     1.132 -65.0 349.2180627  +9.8522896
    9146.743  3.77    712.657    738.915     1.700     1.633  29.2 349.2173208  +9.8562771
    2725.185  6.01    138.085    736.282     2.356     1.497 -61.4 349.2211564  +9.7723545
    1379.663  2.49    527.543    735.005     1.357     1.234  24.7 349.2181032  +9.8292170
    1397.773  3.08    543.575    726.492     1.467     1.249  52.3 349.2167238  +9.8314964
     1002944  2.06    171.137    695.338     3.792     3.302 -46.7 349.2148474  +9.7768842
    230.5625  5.73    686.784    702.216     0.993     0.350  43.9 349.2120727  +9.8522330
    1615.135  5.25    547.859    698.300     1.347     1.318  77.8 349.2125148  +9.8319176
    3586.473  3.67    291.960    696.832     1.790     1.482  25.8 349.2141800  +9.7945386
    11824.57  3.62    362.701    688.643     3.207     2.476 -76.1 349.2124462  +9.8048095
    2621.685  4.56    667.661    718.707     1.628     1.420  20.1 349.2146572  +9.8495601
    2581.501  7.46    487.393    684.245     2.031     1.359  70.8 349.2108769  +9.8229862
    1293.525  4.00    285.620    683.075     1.584     1.153  -0.2 349.2121883  +9.7935131
    924.6797  6.20    778.422    680.741     1.257     0.791  57.0 349.2082159  +9.8654590
    1157.966  6.17    679.632    681.138     1.523     0.906  36.2 349.2090019  +9.8510359
    251.5112  5.31    689.630    715.204     0.739     0.452 -73.1 349.2139765  +9.8527427
    2063.995  2.21    391.670    679.367     2.005     1.385  16.3 349.2108586  +9.8089725
    1137.192  5.36    604.132    714.547     1.166     0.945  17.8 349.2145082  +9.8402529
    621.0562  5.62    586.043    671.925     1.105     0.743  15.7 349.2083254  +9.8373024
      451009  2.60    494.906    707.487     2.325     2.152 -23.0 349.2142656  +9.8242517
    306.8014  4.70     32.202    668.572     0.742     0.451 -20.1 349.2119040  +9.7564018
    28769.51  3.28    430.243    655.801     1.823     1.710  26.2 349.2070829  +9.8144345
    478.6211  7.40    243.737    709.220     0.834     0.348 -17.1 349.2163700  +9.7875865
    4466.878  4.90    374.354    652.838     1.929     1.815  38.0 349.2070552  +9.8062515
    711.9233  4.57    402.501    654.253     0.989     0.975  27.8 349.2070578  +9.8103720
    860.9653  5.85    517.628    651.417     1.244     0.965  56.2 349.2057901  +9.8271633
    499.0903  7.59     13.789    652.422     0.758     0.450 -19.5 349.2096469  +9.7535960
    2330.222  4.61    496.632    644.490     1.839     1.517  37.5 349.2049182  +9.8240470
    108238.1  2.97    268.639    640.380     1.896     1.845  75.2 349.2059875  +9.7907239
    205816.2  3.76    450.391    621.930     8.977     6.181  82.0 349.2019159  +9.8171310
    17545.48  3.13    734.087    641.209     1.789     1.646  17.1 349.2026840  +9.8586982
    606.8748  4.61    650.826    644.092     1.118     0.734  -8.5 349.2037242  +9.8465608
    589.1171  5.80    620.651    644.124     1.044     0.749 -12.0 349.2039510  +9.8421546
    520.7194  7.53    546.475    641.000     1.137     0.289   0.0 349.2040342  +9.8313002
    1180.353  5.59    595.035    638.370     1.300     1.012  41.6 349.2032869  +9.8383722
    2339.046  5.38    231.418    635.667     1.924     1.740  51.2 349.2055631  +9.7852544
    528094.4  3.38    365.924    596.712    15.198    13.054 -81.6 349.1988012  +9.8046134
    134920.2  3.51    420.053    581.302     5.370     3.424 -30.5 349.1961193  +9.8124061
    5859.233  3.52    317.584    612.284     1.742     1.480  31.1 349.2014643  +9.7976675
    449.8332  5.86      6.265    614.748     0.941     0.644   7.1 349.2041211  +9.7522242
    58929.23  3.13    427.822    589.323     2.034     1.984 -22.9 349.1972505  +9.8135987
    85551.77  3.06    496.553    622.675     1.907     1.832  17.8 349.2016864  +9.8238773
    3341.637  2.90    638.075    606.899     1.560     1.429  31.4 349.1983066  +9.8444289
    1771.555  3.90    485.815    603.940     1.740     1.562 -37.3 349.1989894  +9.8221733
    724.2578  6.18    225.706    604.775     1.342     0.651 -78.4 349.2010283  +9.7841963
    3956.017  3.55    518.421    595.393     1.928     1.744   3.2 349.1974828  +9.8268727
    705.5345  7.79    629.726    625.024     0.743     0.688  82.6 349.2010538  +9.8433412
    748.0462  6.14    185.089    595.666     1.034     0.752 -74.4 349.1999776  +9.7781989
    1981.484  4.66    602.166    593.541     1.373     1.338  51.6 349.1965916  +9.8390884
    115009.8  2.94     69.514    586.855     1.900     1.823 -69.4 349.1995232  +9.7612580
    449.8275  8.40    719.471    590.502     0.502     0.497  50.2 349.1952771  +9.8561961
    27701.95  3.12    459.039    581.576     1.835     1.775  16.9 349.1958727  +9.8181011
    2547.215  3.42    467.248    577.054     1.680     1.359  38.5 349.1951423  +9.8192670
     580.528  3.53    203.447    585.356     1.067     0.823 -48.1 349.1983150  +9.7808050
    1861.652  4.70    741.571    576.223     1.431     1.340  58.7 349.1929983  +9.8593197
     677.766  5.21    524.355    624.646     1.054     0.877 -46.2 349.2017737  +9.8279515
    1157.063  5.03    596.220    571.592     1.552     0.915  20.8 349.1933828  +9.8380608
    763923.8  2.29     47.619    546.183     2.762     2.569 -62.6 349.1936590  +9.7577657
    1330.002  3.34    325.888    561.853     1.281     1.169  20.2 349.1939311  +9.7985142
    473.2648  6.31    605.005    560.498     0.803     0.500   1.1 349.1916742  +9.8392632
    1176.098  6.38     84.626    556.001     1.491     1.239  10.3 349.1948409  +9.7632409
    2152.585  4.83    114.532    620.540     1.766     1.292   7.0 349.2041823  +9.7680761
    4188.176  4.37    211.664    548.639     1.890     1.524  43.3 349.1928147  +9.7817385
    2701.878  3.98    120.525    549.641     1.822     1.549 -86.7 349.1936344  +9.7684370
    4742.321  3.16    774.915    547.701     1.641     1.477  57.0 349.1885259  +9.8639818
     856.598  3.76    693.242    549.143     1.307     1.087  74.8 349.1893415  +9.8520658
    1489.001  8.86     57.049    567.187     1.549     0.986 -47.7 349.1967012  +9.7592950
     1024.52  8.43     64.958    563.457     1.224     1.067 -24.9 349.1960904  +9.7604229
    1231.097  1.00    459.910    541.926     1.989     1.806  18.5 349.1899913  +9.8179405
    1880.582  4.37    139.658    542.659     1.392     1.307  73.5 349.1924590  +9.7711802
    1471.259  4.10    204.403    538.330     1.382     1.259  54.3 349.1913407  +9.7806034
    1815.961  4.44    790.705    533.353     1.462     1.227  51.9 349.1862832  +9.8661835
    43151.46  2.92    425.413    525.985     2.133     1.743  42.3 349.1878835  +9.8127873
    5084.382  2.20    417.614    517.726     2.440     1.939  18.1 349.1867171  +9.8115886
    136094.5  2.92    364.617    525.972     2.062     1.933  85.8 349.1883294  +9.8039094
    692.5848  4.56    534.262    527.384     1.069     0.814  61.6 349.1872886  +9.8286925
    814.9223  6.16    192.203    527.401     1.256     0.804  35.5 349.1898114  +9.7787425
    3323.957  4.67     94.696    524.950     1.881     1.747  32.3 349.1901666  +9.7644861
    5569.011  6.05     20.254    523.046     2.638     2.129  19.3 349.1904328  +9.7536017
      386.34  7.89    223.513    524.981     0.789     0.316 -57.6 349.1892222  +9.7832971
    1365.718  2.78     98.884    566.026     1.565     1.340  48.4 349.1962212  +9.7653957
    868.2923  8.87    165.766    521.393     0.758     0.452 -17.8 349.1891160  +9.7748384
     2065.27  5.39    582.589    514.052     2.267     1.168 -27.6 349.1849569  +9.8356528
    645.8951  3.37    283.936    515.687     1.057     0.828 -58.8 349.1874000  +9.7920531
    2276.966  2.37    765.075    513.420     1.525     1.464  45.6 349.1835182  +9.8622961
    740.6826  4.31      1.631    513.362     1.532     0.645 -86.3 349.1891354  +9.7508119
    1653.845  4.19    217.525    512.750     1.475     1.295  66.3 349.1874542  +9.7823339
    558.0143  5.28    343.164    512.526     0.965     0.748  89.0 349.1864953  +9.8006791
    1509.774  5.67    198.526    511.362     1.610     1.171  46.3 349.1873886  +9.7795494
    539.8771  6.25    598.874    507.129     0.850     0.671  43.8 349.1838111  +9.8379805
    957.5366  2.53    322.464    498.727     1.272     1.150   6.2 349.1846033  +9.7975560
    105857.1  3.98    535.307    478.679    10.465     2.883  41.5 349.1800639  +9.8284914
    583.8427  6.24    792.994    495.511     1.037     0.664  63.3 349.1806583  +9.8662430
      104817  3.93    451.543    473.112    10.214     9.133 -81.0 349.1798566  +9.8162191
    6531.236  3.68    326.544    793.216     1.670     1.551  53.0 349.2282063  +9.8002870
    8231.277  3.05    734.613    447.002     2.328     1.999  47.9 349.1739002  +9.8573655
    3421.832  3.14    729.257    438.447     1.810     1.433  28.7 349.1726720  +9.8565212
    708.6839  5.41    712.492    447.527     1.134     0.852  43.9 349.1741412  +9.8541390
    2024.402  5.43    251.027    445.495     1.586     1.367  16.7 349.1772429  +9.7867379
    26365.96  3.06      5.424    439.108     1.719     1.621  60.0 349.1781073  +9.7508268
    531.9323  7.99    176.507    491.984     0.792     0.500  89.5 349.1846798  +9.7761934
    1071.627  4.89    705.218    432.885     1.228     1.147 -83.6 349.1720250  +9.8529705
    3166.383  4.69    697.482    483.756     1.979     1.673  73.8 349.1796206  +9.8522103
    14331.45  3.21    223.476    425.479     1.770     1.697  41.1 349.1744804  +9.7825692
     21180.2  3.31    566.839    423.756     1.988     1.773  33.3 349.1716929  +9.8326970
      1166.5  3.54    672.399    424.064     1.680     1.269  89.1 349.1709599  +9.8481138
    25223.49  3.40    568.755    481.651     1.830     1.805  29.6 349.1802576  +9.8333973
    3984.532  4.00    369.769    479.337     2.079     1.585 -89.6 349.1813817  +9.8043231
    1527.816  4.55    183.061    420.150     1.395     1.101  50.3 349.1739890  +9.7766288
    415.8687  7.15    157.152    422.677     1.090     0.412  12.6 349.1745544  +9.7728637
    12160.81  3.48    658.203    401.637     1.839     1.667  51.5 349.1677413  +9.8458779
    226479.4  2.88    783.368    393.241     2.024     1.976  16.7 349.1655736  +9.8640943
    1077.683  4.77      1.808    397.860     1.640     0.742  89.9 349.1720232  +9.7499990
    1408.124  4.82     94.916    394.926     1.815     1.213  79.0 349.1709020  +9.7635740
      2168.2  7.75    391.436    394.503     2.118     1.732 -17.7 349.1686523  +9.8068708
    1016.011  5.04    645.075    394.223     1.254     1.104  63.7 349.1667396  +9.8439069
    1267.255  5.52    175.702    480.315     1.378     1.085  52.6 349.1829570  +9.7759912
    30792.82  3.53    309.811    389.405     2.915     2.688  12.2 349.1684990  +9.7949143
    2630.971  4.69    763.091    382.907     1.717     1.547  42.1 349.1641917  +9.8610582
    1158.596  6.83    195.927    379.299     1.207     0.835  36.4 349.1678418  +9.7782108
    1081.988  3.98     40.099    377.121     1.276     1.003 -18.3 349.1686685  +9.7554398
    2092.924  4.05     41.502    372.445     1.816     1.459 -44.0 349.1679655  +9.7556108
    136160.6  3.00    605.813    377.472     1.959     1.937  38.5 349.1645470  +9.8380519
    599.4356  7.41    631.005    377.267     0.741     0.690  -3.4 349.1643308  +9.8417292
    12106.51  3.57    586.852    373.415     1.846     1.741  37.6 349.1640858  +9.8352535
    1058.938  4.58    601.253    477.718     1.388     1.131   7.8 349.1794353  +9.8381143
    862.3926  3.52    707.664    373.202     1.263     0.945  82.8 349.1631626  +9.8528938
    2000.558  3.09      4.931    371.071     1.921     1.432  71.2 349.1680317  +9.7502604
    586821.7  3.24    288.764    451.070    10.624     7.496 -22.4 349.1777906  +9.7922888
     615.347  6.05    298.645    360.498     1.053     0.643 -83.9 349.1642985  +9.7930738
    2270.303  7.10    530.781    360.183     1.743     1.570  32.0 349.1625388  +9.8269696
    381.9355  5.67    778.186    352.304     0.996     0.385 -86.1 349.1595451  +9.8630401
    141044.2  2.95    359.001    341.205     1.968     1.914  63.0 349.1609945  +9.8017470
    693.1302  6.86    192.860    490.514     1.125     0.575  63.1 349.1843416  +9.7785707
    705.1249  5.76     22.858    466.346     1.387     0.723  78.7 349.1820139  +9.7535703
    3505.492  4.35     27.381    490.636     1.566     1.391  64.8 349.1855790  +9.7544072
     793.722  2.40    120.405    340.342     1.243     1.075  79.9 349.1626274  +9.7668994
    172860.2  2.96    694.169    456.217     2.051     1.992  86.9 349.1755641  +9.8515264
    35825.36  3.75    600.652    454.930     4.215     3.219 -12.8 349.1760629  +9.8378611
    16985.26  3.86    591.037    441.068     2.697     2.257  65.4 349.1740798  +9.8363564
    443.8283  8.57    781.513    339.493     0.503     0.497  45.6 349.1576221  +9.8634326
    1392.935  4.54    279.413    332.304     1.467     1.175  48.9 349.1602632  +9.7900604
    2298.095  3.25    210.800    329.392     2.496     1.427 -42.8 349.1603380  +9.7800199
    671.1746  5.70      7.925    332.397     1.397     0.662 -57.7 349.1622804  +9.7504165
    1671.588  7.73    138.304    327.121     1.185     1.018  77.7 349.1605366  +9.7694170
    619.3323  3.63    668.666    323.929     1.059     0.739  18.8 349.1561488  +9.8468408
    23293.38  4.47    150.218    312.237     4.267     3.394 -74.3 349.1582437  +9.7710485
    1255.135  5.79    575.281    318.617     1.562     1.041  54.8 349.1560512  +9.8331655
    1429.014  5.32     74.350    316.634     1.568     1.196  60.1 349.1594549  +9.7600017
    3725.597  3.90    726.526    309.596     1.686     1.619   9.6 349.1535976  +9.8551857
    1406.269  5.76    412.139    310.184     1.546     1.191   7.1 349.1560061  +9.8092810
    909.5542  4.51    736.970    309.199     1.240     0.915   8.2 349.1534617  +9.8567079
    2475.278  4.71     40.537    307.496     1.421     1.309 -15.5 349.1583507  +9.7549977
    1256.753  2.65    610.911    304.114     1.690     1.150 -38.4 349.1536391  +9.8382629
    80.69341  0.39    218.151    304.985     1.265     1.054  48.9 349.1566677  +9.7809159
    2924.701  3.23    621.439    303.333     1.821     1.523   7.6 349.1534455  +9.8397946
     892.095  3.38    308.940    299.826     1.362     1.019 -45.6 349.1552332  +9.7941359
    984.8464  6.49    652.000    295.857     0.991     0.867  -0.5 349.1521121  +9.8442030
    6789.389  3.99    156.552    289.702     1.629     1.568  12.9 349.1548582  +9.7718096
    5145.397  3.14     97.176    289.938     1.637     1.472  37.9 349.1553314  +9.7631408
     4342.46  4.43     63.830    289.941     1.821     1.533   9.3 349.1555781  +9.7582714
    7876.823  3.66    124.053    285.164     1.628     1.539   5.2 349.1544259  +9.7670309
    31935.08  3.09    777.341    316.853     1.804     1.746  50.7 349.1542979  +9.8626588
     8278.86  4.89    405.129    276.211     2.331     2.062  -4.1 349.1510240  +9.8080104
    1999.386  6.27    418.456    275.266     1.908     1.300  81.6 349.1507857  +9.8099495
     601.033  4.10    387.033    275.574     1.048     0.777  87.9 349.1510633  +9.8053632
    1135.597  5.22    453.755    268.954     1.352     0.969  42.7 349.1495897  +9.8150582
    525.2473  6.15    372.120    264.646     0.902     0.690  68.5 349.1495543  +9.8031060
     11833.2  3.80    123.970    258.739     2.733     2.329  74.1 349.1505116  +9.7668265
    3382.981  3.78    776.276    257.951     1.613     1.489 -18.9 349.1455768  +9.8620748
    1441.864  2.89    259.661    257.288     1.393     1.283  27.0 349.1492946  +9.7866305
    613.9112  2.56    525.495    253.119     1.056     0.984  60.7 349.1467135  +9.8254190
    125686.1  2.97    402.015    247.909     1.912     1.866  24.1 349.1468536  +9.8073498
    3173.113  6.53    657.411    245.629     2.324     1.835  13.9 349.1446290  +9.8446276
    7229.383  4.88    628.910    234.745     2.730     1.842 -40.7 349.1432268  +9.8403865
    547.7226  6.05    790.025    248.946     0.797     0.789 -37.8 349.1441408  +9.8640170
    856.7173  5.85    296.302    235.403     1.126     0.932  86.0 349.1457815  +9.7918218
    864.0601  3.59    444.456    262.227     1.059     0.952  63.8 349.1486617  +9.8136514
    73133.27  2.99      3.249    222.181     1.766     1.505  86.6 349.1459872  +9.7489321
    1417.281  4.85    617.662    468.994     1.513     1.310  44.7 349.1780216  +9.8404472
    7782.009  3.32    237.802    221.723     1.664     1.583  27.2 349.1441869  +9.7831796
    4817.785  4.23    372.011    219.938     1.968     1.836 -35.4 349.1429308  +9.8027647
    2327.367  4.69    611.264    219.937     1.597     1.426  53.1 349.1411629  +9.8377020
       15227  3.31    291.690    218.404     1.805     1.759 -12.9 349.1432969  +9.7910246
    982.6487  4.35    516.580    219.738     1.350     0.843  59.3 349.1418331  +9.8238742
    579.9521  7.69    389.892    220.154     0.843     0.663  42.6 349.1428307  +9.8053774
    382539.2  2.75    554.761    199.774     2.174     2.118 -16.6 349.1385927  +9.8293044
    633.7858  6.79    382.311    211.922     0.925     0.690  23.2 349.1416670  +9.8042105
    56605.41  3.04    433.919    204.443     1.849     1.819  37.4 349.1401776  +9.8116921
     1501.42  4.73    474.035    205.750     1.495     1.085  57.2 349.1400748  +9.8175597
    1870.829  4.82     29.136    205.367     1.443     1.360 -74.0 349.1433050  +9.7525899
    2446.552  4.02    617.346    195.506     2.013     1.416  56.3 349.1374978  +9.8384123
    11435.02  3.65    512.472    193.883     5.109     1.839 -12.9 349.1380324  +9.8230861
    546.0865  5.91    671.863    195.887     0.823     0.672 -46.9 349.1371513  +9.8463760
     2455.44  5.71    234.683    190.683     2.267     1.208 -46.8 349.1396110  +9.7824982
    1113.459  4.96    239.146    184.558     1.271     1.206 -67.1 349.1386707  +9.7831055
    1479.408  3.81    488.143    186.647     1.396     1.226 -56.3 349.1371400  +9.8194808
    121712.1  2.96    120.507    177.301     1.907     1.797 -84.0 349.1384722  +9.7657282
    1471.445  6.38    252.994    182.018     1.418     1.128 -46.4 349.1381919  +9.7851092
    842.5269  6.73    633.612    180.079     1.039     0.750 -15.5 349.1350915  +9.8406752
    1947.406  7.71    553.460    178.664     1.540     1.289   2.2 349.1354743  +9.8289606
    5215.534  4.21    142.693    177.782     1.665     1.496  45.2 349.1383795  +9.7689714
    3024.593  4.30     70.816    175.029     2.015     1.529  31.6 349.1385028  +9.7584555
    451.8957  5.88    632.862    171.692     0.876     0.606 -30.6 349.1338542  +9.8405047
    4512.273  3.62    506.829    164.745     1.773     1.577  32.6 349.1337566  +9.8220500
    13434.25  3.30    299.093    163.985     1.776     1.648  49.9 349.1351795  +9.7917094
    1521.553  5.60    479.679    163.273     1.262     1.167 -32.9 349.1337391  +9.8180746
    5657.252  4.20    337.788    161.976     1.811     1.724 -26.6 349.1345958  +9.7973453
    1940.723  5.68    338.494    155.236     1.421     1.237  24.2 349.1335920  +9.7973994
    1500.677  5.46    551.284    157.511     1.382     1.315  33.6 349.1323560  +9.8284889
    3053.515  5.57    543.130    157.234     1.659     1.535  38.3 349.1323753  +9.8272962
    1716.266  5.38    666.623    153.890     1.928     1.197   5.7 349.1309666  +9.8453049
    1956.757  4.73     22.509    150.624     1.794     1.383  85.3 349.1352443  +9.7512237
    435.4465  1.81    724.394    151.598     1.291     0.940  68.3 349.1301998  +9.8537244
     1974.91  3.31    285.298    149.987     1.742     1.433  15.8 349.1332076  +9.7895931
    1137.405  5.51    774.958    149.749     1.427     1.104  59.1 349.1295519  +9.8610946
    2159.747  3.84     70.128    146.744     1.986     1.295 -63.6 349.1343175  +9.7581490
    1934.755  3.59    500.532    140.614     1.725     1.380  33.6 349.1302275  +9.8209546
    395.3028  5.26    245.780    142.345     0.729     0.651  62.1 349.1323675  +9.7837668
    1187.352  4.95    781.822    141.720     1.522     1.236  68.3 349.1283113  +9.8620384
    23233.27  5.92    633.520    131.856    10.848     5.401 -47.8 349.1279463  +9.8403106
      323773  2.67    645.920    115.852     2.302     2.012 -36.1 349.1254832  +9.8420048
    44902.33  3.09    375.289    131.127     1.821     1.761  18.1 349.1297480  +9.8025969
    178274.7  2.84    639.804    111.403     1.989     1.965 -71.9 349.1248692  +9.8410792
    648.4333  4.14    503.358    130.946     1.051     0.849  33.8 349.1287741  +9.8212969
    872.9438  5.59    568.804    128.800     1.148     0.799  70.1 349.1279721  +9.8308380
    2625.962  2.45    449.204    124.979     1.548     1.467   4.2 349.1282905  +9.8133456
    581.3174  7.09     38.712    123.571     0.984     0.547  59.3 349.1311167  +9.7533927
    643.2275  8.08     94.173    123.221     1.002     0.346 -44.7 349.1306549  +9.7614890
    5318.324  3.82    579.337    113.646     2.130     1.785  53.3 349.1256487  +9.8322658
     366.744  4.29    225.875    115.877     0.796     0.683 -44.4 349.1285933  +9.7806674
    1618.354  4.84    779.126    112.352     1.564     1.382   4.0 349.1239792  +9.8614308
     485.676  1.88    523.501    111.161     1.072     0.956 -77.5 349.1256935  +9.8240942
     1192.43  6.63     55.114    110.295     1.487     0.869  44.5 349.1290288  +9.7556911
    325.9229  5.77    127.398    107.807     0.739     0.453 -71.4 349.1281257  +9.7662284
     731.603  3.85    313.624    106.807     1.119     0.934   4.1 349.1266005  +9.7934150
    2399.745  3.72    735.381     99.784     1.733     1.352  54.8 349.1224403  +9.8549512
    3380.772  4.89    403.997     98.572     2.264     1.678 -14.0 349.1247121  +9.8065518
    540.9724  5.96    379.879    100.140     0.833     0.670  42.0 349.1251228  +9.8030413
     15540.1  3.12    577.555     95.297     1.760     1.642   3.5 349.1229430  +9.8318719
    18397.17  3.17    390.638     91.806     1.804     1.656  34.3 349.1238083  +9.8045517
    338.3571  6.88    174.800     92.390     0.760     0.448 -18.4 349.1254912  +9.7730380
    215697.7  2.88    329.493     82.165     1.979     1.976  84.9 349.1228322  +9.7955527
      990.33  6.79     20.457     85.518     1.174     0.864 -43.6 349.1256145  +9.7504498
    590.2231  5.51    545.132     80.098     1.120     0.660 -83.1 349.1209308  +9.8270266
    330.0428  6.61    191.483     79.961     0.801     0.500 -88.9 349.1235265  +9.7753835
    321.7317  7.02      2.506     78.483     0.506     0.493  44.4 349.1247050  +9.7477773
    658.8221  6.16    692.459     76.960     1.036     0.659  26.1 349.1193757  +9.8485172
    329.6949  4.29    535.869     75.819     0.760     0.565  42.1 349.1203652  +9.8256426
    705.3512  4.96    667.985     64.845     1.068     0.737  15.1 349.1177615  +9.8448551
    531.8502  7.40    627.300     65.035     0.747     0.681  82.7 349.1180908  +9.8389153
    688.3085  6.05     87.543     63.161     1.110     0.727  39.3 349.1218063  +9.7600832
     1315.99  2.87     58.207     62.954     1.298     1.157  23.9 349.1219926  +9.7557979
    478.5324  2.69     77.594     62.775     1.068     0.803  35.4 349.1218227  +9.7586276
    32260.11  3.15    318.388     54.770     1.775     1.699  27.2 349.1188554  +9.7937314
    828.8102  1.92    418.295    792.640     1.267     1.090  24.2 349.2274466  +9.8136812
     1858.19  8.18    267.957     49.676     1.775     1.181 -70.0 349.1184739  +9.7863301
    580.0297  7.05    154.969     49.722     0.976     0.614  64.0 349.1193165  +9.7698312
     864.539  7.82    450.975     44.732     1.930     0.944  84.4 349.1163872  +9.8130193
    1378.293  5.25    565.010     38.661     1.614     0.994  57.8 349.1146437  +9.8296271
    650.7652  7.20     46.669     39.708     1.101     0.461  60.1 349.1186342  +9.7539436
    1261.636  4.04    307.373    792.493     1.445     1.177  53.8 349.2282401  +9.7974823
    261.9865  5.66    752.521     52.494     0.513     0.487  45.4 349.1153056  +9.8571094
     1179.79  5.01     43.288    790.278     1.256     1.131  -8.2 349.2298529  +9.7589025
    1111.622  5.38    176.556     23.034     1.412     1.046 -33.3 349.1152029  +9.7727890
    487.6055  5.14    244.290    789.584     0.968     0.626 -17.5 349.2282729  +9.7882494
    2010.709  4.29    759.203     29.833     2.117     1.462 -34.8 349.1118981  +9.8579200
     567.093  6.72    735.294     52.009     0.744     0.683 -85.3 349.1153613  +9.8545904
    879.9454  6.44    171.611    789.665     1.020     0.873  40.3 349.2288190  +9.7776368
    2002.532  5.13    758.827    785.536     1.545     1.348 -10.1 349.2238901  +9.8633570
     1122.46  7.18    421.880     34.854     1.508     1.101  27.2 349.1151389  +9.8086988
    1118.818  3.63     99.405    784.256     2.020     0.928  41.7 349.2285483  +9.7670535
